****************************************************
* FILE:C:\Users\claus\Desktop\Candy WTPro\E0018_W18_0g_242_27mV.zma
* INFO: Arb1
* Data: Impedance (ohms), Phase (degrees) 
****************************************************
   10.000    +7.4867   +30.2638  
   10.199    +7.5578   +30.7655  
   10.403    +7.6261   +31.2435  
   10.611    +7.6927   +31.6828  
   10.823    +7.7664   +32.1161  
   11.040    +7.8354   +32.6614  
   11.261    +7.9185   +33.0723  
   11.485    +7.9971   +33.5341  
   11.715    +8.0740   +34.0283  
   11.949    +8.1703   +34.4869  
   12.188    +8.2611   +34.9666  
   12.432    +8.3570   +35.4167  
   12.681    +8.4510   +35.8543  
   12.935    +8.5589   +36.3462  
   13.192    +8.6634   +36.8221  
   13.456    +8.7816   +37.3168  
   13.726    +8.9011   +37.7488  
   14.000    +9.0250   +38.2153  
   14.279    +9.1559   +38.6602  
   14.565    +9.2904   +39.1319  
   14.856    +9.4419   +39.5974  
   15.153    +9.5923   +40.0372  
   15.456    +9.7522   +40.4625  
   15.766    +9.9192   +40.9312  
   16.080   +10.0889   +41.3408  
   16.402   +10.2755   +41.8259  
   16.729   +10.4752   +42.2773  
   17.064   +10.6870   +42.6409  
   17.405   +10.9045   +43.0688  
   17.754   +11.1358   +43.4295  
   18.108   +11.3767   +43.7850  
   18.471   +11.6284   +44.1785  
   18.840   +11.9012   +44.4787  
   19.217   +12.2049   +44.8340  
   19.601   +12.5159   +45.1005  
   19.992   +12.8455   +45.4150  
   20.392   +13.2107   +45.6729  
   20.800   +13.5915   +45.8758  
   21.216   +13.9967   +46.0972  
   21.640   +14.4389   +46.2401  
   22.072   +14.9141   +46.3212  
   22.514   +15.4220   +46.3451  
   22.964   +15.9619   +46.3306  
   23.423   +16.5744   +46.2952  
   23.891   +17.2019   +46.0592  
   24.368   +17.9127   +45.8410  
   24.855   +18.6663   +45.5054  
   25.353   +19.4999   +45.1204  
   25.859   +20.3976   +44.4747  
   26.376   +21.3754   +43.7527  
   26.903   +22.4655   +42.7987  
   27.441   +23.6345   +41.7097  
   27.990   +24.9301   +40.3421  
   28.550   +26.2974   +38.6875  
   29.120   +27.8182   +36.8628  
   29.703   +29.4288   +34.5395  
   30.297   +31.2149   +31.8400  
   30.902   +33.0179   +28.6362  
   31.520   +34.8564   +24.8778  
   32.150   +36.5792   +20.6988  
   32.793   +38.2936   +15.9392  
   33.448   +39.6377   +10.6649  
   34.117   +40.5828    +5.0420  
   34.799   +40.9347    -0.8850  
   35.495   +40.6979    -6.9040  
   36.204   +39.8884   -12.7493  
   36.928   +38.7018   -18.1490  
   37.666   +37.1293   -23.2195  
   38.419   +35.2208   -27.6420  
   39.188   +33.3158   -31.6707  
   39.971   +31.4062   -35.0860  
   40.770   +29.5287   -37.9690  
   41.585   +27.7514   -40.3969  
   42.416   +26.1031   -42.4621  
   43.265   +24.5922   -44.1600  
   44.129   +23.2083   -45.5896  
   45.012   +21.9462   -46.6914  
   45.911   +20.7688   -47.5999  
   46.829   +19.6941   -48.2928  
   47.766   +18.7216   -48.7851  
   48.720   +17.8351   -49.2171  
   49.694   +17.0344   -49.3767  
   50.688   +16.2886   -49.5100  
   51.701   +15.6115   -49.5345  
   52.734   +14.9972   -49.4366  
   53.789   +14.4140   -49.2768  
   54.864   +13.8877   -49.0337  
   55.961   +13.4000   -48.7388  
   57.079   +12.9399   -48.3860  
   58.221   +12.5088   -47.9267  
   59.385   +12.1227   -47.4038  
   60.571   +11.7794   -46.8188  
   61.782   +11.4989   -46.3324  
   63.018   +11.1949   -46.0125  
   64.277   +10.8851   -45.5644  
   65.563   +10.6003   -44.9948  
   66.873   +10.3308   -44.4107  
   68.210   +10.0760   -43.7548  
   69.573    +9.8515   -43.0029  
   70.965    +9.6530   -42.3055  
   72.383    +9.4757   -41.6824  
   73.830    +9.2801   -41.1212  
   75.307    +9.0928   -40.4478  
   76.812    +8.9221   -39.7259  
   78.348    +8.7642   -39.0080  
   79.913    +8.6164   -38.2555  
   81.511    +8.4800   -37.4988  
   83.141    +8.3501   -36.7297  
   84.803    +8.2358   -35.9517  
   86.498    +8.1364   -35.2432  
   88.228    +8.0363   -34.5453  
   89.991    +7.9343   -33.9280  
   91.790    +7.8321   -33.2535  
   93.625    +7.7421   -32.5450  
   95.497    +7.6490   -31.8496  
   97.406    +7.5645   -31.1020  
   99.354    +7.4892   -30.3851  
  101.339    +7.4193   -29.6500  
  103.365    +7.3652   -28.9489  
  105.432    +7.3028   -28.3876  
  107.539    +7.2322   -27.7201  
  109.689    +7.1726   -26.9994  
  111.882    +7.1271   -26.3112  
  114.118    +7.0793   -25.6886  
  116.400    +7.0321   -25.1071  
  118.727    +6.9809   -24.5161  
  121.101    +6.9316   -23.8965  
  123.521    +6.8845   -23.2661  
  125.990    +6.8435   -22.6278  
  128.510    +6.8018   -21.9990  
  131.078    +6.7689   -21.3696  
  133.699    +6.7350   -20.7424  
  136.372    +6.7029   -20.1252  
  139.098    +6.6729   -19.5332  
  141.879    +6.6441   -18.9274  
  144.715    +6.6196   -18.3149  
  147.608    +6.5960   -17.7391  
  150.559    +6.5750   -17.1602  
  153.568    +6.5523   -16.5785  
  156.639    +6.5341   -16.0107  
  159.771    +6.5176   -15.4437  
  162.964    +6.5019   -14.8920  
  166.222    +6.4880   -14.3411  
  169.545    +6.4754   -13.8121  
  172.935    +6.4649   -13.2714  
  176.392    +6.4541   -12.7626  
  179.918    +6.4445   -12.2306  
  183.515    +6.4399   -11.6961  
  187.184    +6.4316   -11.1754  
  190.926    +6.4367   -10.5790  
  194.742    +6.4697   -10.2334  
  198.636    +6.4427   -10.1308  
  202.606    +6.4187    -9.6166  
  206.656    +6.4099    -9.1177  
  210.788    +6.4074    -8.6687  
  215.002    +6.3993    -8.1967  
  219.300    +6.3963    -7.7173  
  223.684    +6.3965    -7.2648  
  228.156    +6.3993    -6.8179  
  232.717    +6.4033    -6.4320  
  237.369    +6.3999    -6.0307  
  242.114    +6.3982    -5.6011  
  246.955    +6.4009    -5.1655  
  251.892    +6.4062    -4.7084  
  256.927    +6.4164    -4.2143  
  262.063    +6.4516    -4.1211  
  267.303    +6.4268    -3.7433  
  272.646    +6.4399    -3.3369  
  278.097    +6.4531    -3.1035  
  283.656    +6.4383    -2.7883  
  289.327    +6.4367    -2.3676  
  295.110    +6.4411    -1.9772  
  301.011    +6.4457    -1.5962  
  307.028    +6.4508    -1.2284  
  313.166    +6.4594    -0.8687  
  319.427    +6.4672    -0.5073  
  325.813    +6.4761    -0.1494  
  332.325    +6.4856    +0.1911  
  338.969    +6.4938    +0.5295  
  345.745    +6.5057    +0.8685  
  352.657    +6.5143    +1.1988  
  359.707    +6.5256    +1.5649  
  366.898    +6.5408    +1.9031  
  374.233    +6.5574    +2.2745  
  381.714    +6.5856    +2.6013  
  389.346    +6.6269    +2.7888  
  397.129    +6.6364    +2.7272  
  405.067    +6.6256    +2.8564  
  413.166    +6.6131    +3.1858  
  421.425    +6.6159    +3.5589  
  429.850    +6.6278    +3.9106  
  438.443    +6.6430    +4.2331  
  447.208    +6.6570    +4.4120  
  456.148    +6.6589    +4.6883  
  465.268    +6.6663    +5.0327  
  474.568    +6.6807    +5.3473  
  484.056    +6.6931    +5.6238  
  493.732    +6.7042    +5.9262  
  503.603    +6.7179    +6.2042  
  513.671    +6.7320    +6.4969  
  523.939    +6.7461    +6.7762  
  534.414    +6.7607    +7.0610  
  545.098    +6.7770    +7.3428  
  555.994    +6.7919    +7.6083  
  567.109    +6.8070    +7.8586  
  578.446    +6.8211    +8.1304  
  590.011    +6.8363    +8.4045  
  601.806    +6.8536    +8.6622  
  613.836    +6.8678    +8.9311  
  626.107    +6.8832    +9.2131  
  638.624    +6.9014    +9.4801  
  651.391    +6.9176    +9.7360  
  664.413    +6.9348   +10.0265  
  677.695    +6.9528   +10.2812  
  691.243    +6.9699   +10.5526  
  705.063    +6.9882   +10.8384  
  719.157    +7.0067   +11.1046  
  733.534    +7.0267   +11.3782  
  748.198    +7.0464   +11.6507  
  763.155    +7.0668   +11.9190  
  778.412    +7.0870   +12.2033  
  793.974    +7.1090   +12.4925  
  809.846    +7.1343   +12.7768  
  826.035    +7.1635   +13.0459  
  842.549    +7.1946   +13.2565  
  859.393    +7.2093   +13.4666  
  876.572    +7.2344   +13.7318  
  894.097    +7.2518   +13.9692  
  911.971    +7.2712   +14.2630  
  930.202    +7.2973   +14.5676  
  948.798    +7.3256   +14.8420  
  967.765    +7.3516   +15.1213  
  987.112    +7.3823   +15.4012  
 1006.846    +7.4170   +15.6791  
 1026.974    +7.4540   +15.9014  
 1047.504    +7.4801   +16.1246  
 1068.444    +7.5105   +16.3461  
 1089.804    +7.5372   +16.5634  
 1111.591    +7.5688   +16.7735  
 1133.813    +7.5944   +17.0091  
 1156.479    +7.6215   +17.2216  
 1179.598    +7.6482   +17.4946  
 1203.180    +7.6733   +17.7641  
 1227.232    +7.7059   +18.0367  
 1251.767    +7.7377   +18.2943  
 1276.791    +7.7761   +18.5264  
 1302.315    +7.8072   +18.7792  
 1328.350    +7.8399   +19.0247  
 1354.905    +7.8755   +19.2649  
 1381.991    +7.9145   +19.5048  
 1409.619    +7.9507   +19.7284  
 1437.799    +7.9861   +19.8944  
 1466.542    +8.0228   +20.0802  
 1495.860    +8.0520   +20.2576  
 1525.765    +8.0777   +20.4461  
 1556.266    +8.0998   +20.6937  
 1587.378    +8.1244   +20.9558  
 1619.111    +8.1463   +21.2439  
 1651.479    +8.1797   +21.5763  
 1684.494    +8.2115   +21.8316  
 1718.169    +8.2377   +22.1666  
 1752.518    +8.2749   +22.4947  
 1787.552    +8.3147   +22.8122  
 1823.287    +8.3496   +23.1420  
 1859.737    +8.3901   +23.4722  
 1896.915    +8.4329   +23.8426  
 1934.837    +8.4925   +24.0855  
 1973.517    +8.5257   +24.4555  
 2012.970    +8.5723   +24.8051  
 2053.211    +8.6236   +25.1187  
 2094.257    +8.6777   +25.4402  
 2136.124    +8.7312   +25.7423  
 2178.827    +8.7857   +26.0522  
 2222.385    +8.8409   +26.3462  
 2266.813    +8.8958   +26.6434  
 2312.129    +8.9536   +26.9446  
 2358.351    +9.0128   +27.2448  
 2405.497    +9.0700   +27.5326  
 2453.586    +9.1295   +27.8341  
 2502.636    +9.1902   +28.1298  
 2552.666    +9.2536   +28.4250  
 2603.697    +9.3188   +28.7132  
 2655.748    +9.3850   +29.0077  
 2708.840    +9.4498   +29.2837  
 2762.992    +9.5122   +29.5984  
 2818.228    +9.5834   +29.9063  
 2874.567    +9.6564   +30.2114  
 2932.033    +9.7296   +30.5198  
 2990.648    +9.8112   +30.8147  
 3050.435    +9.8927   +31.0974  
 3111.417    +9.9710   +31.3765  
 3173.617   +10.0546   +31.6454  
 3237.062   +10.1436   +31.9189  
 3301.774   +10.2319   +32.1949  
 3367.780   +10.3187   +32.4375  
 3435.106   +10.4101   +32.6818  
 3503.778   +10.5062   +32.9259  
 3573.823   +10.6023   +33.1500  
 3645.268   +10.6989   +33.3729  
 3718.141   +10.7982   +33.5727  
 3792.471   +10.8964   +33.7511  
 3868.287   +10.9965   +33.9464  
 3945.618   +11.1018   +34.1173  
 4024.496   +11.2024   +34.2592  
 4104.950   +11.3031   +34.3832  
 4187.013   +11.3903   +34.5248  
 4270.716   +11.4848   +34.7510  
 4356.093   +11.5896   +34.9818  
 4443.176   +11.7135   +35.1871  
 4532.000   +11.8470   +35.3210  
 4622.601   +11.9952   +35.2990  
 4715.012   +12.1209   +35.0678  
 4809.270   +12.1969   +34.7770  
 4905.413   +12.1985   +34.4925  
 5003.478   +12.1364   +34.6269  
 5103.503   +12.1308   +35.2752  
 5205.528   +12.2083   +35.9668  
 5309.593   +12.3297   +36.4650  
 5415.737   +12.4504   +36.8958  
 5524.004   +12.5795   +37.2334  
 5634.436   +12.7246   +37.5523  
 5747.074   +12.8516   +37.8134  
 5861.965   +12.9887   +38.0455  
 5979.152   +13.1208   +38.2912  
 6098.683   +13.2555   +38.4987  
 6220.603   +13.3949   +38.7051  
 6344.960   +13.5356   +38.8931  
 6471.803   +13.6753   +39.0959  
 6601.182   +13.8182   +39.2554  
 6733.146   +13.9584   +39.4308  
 6867.750   +14.1072   +39.5839  
 7005.045   +14.2520   +39.7387  
 7145.084   +14.3960   +39.8755  
 7287.922   +14.5435   +40.0002  
 7433.616   +14.6828   +40.1292  
 7582.223   +14.8250   +40.2880  
 7733.800   +14.9793   +40.4429  
 7888.408   +15.1251   +40.5836  
 8046.106   +15.2842   +40.7184  
 8206.957   +15.4389   +40.8454  
 8371.024   +15.5941   +40.9736  
 8538.370   +15.7565   +41.1017  
 8709.063   +15.9139   +41.1927  
 8883.167   +16.0636   +41.3084  
 9060.752   +16.2258   +41.4327  
 9241.887   +16.3902   +41.5405  
 9426.643   +16.5466   +41.6593  
 9615.092   +16.7103   +41.7694  
 9807.309   +16.8846   +41.8698  
10003.368   +17.0470   +41.9865  
10203.348   +17.2333   +42.0749  
10407.324   +17.3985   +42.1674  
10615.379   +17.5650   +42.2524  
10827.592   +17.7415   +42.3740  
11044.048   +17.9153   +42.4588  
11264.832   +18.0940   +42.5494  
11490.028   +18.2764   +42.6562  
11719.728   +18.4565   +42.7341  
11954.019   +18.6373   +42.8427  
12192.993   +18.8111   +42.9097  
12436.745   +18.9975   +43.0116  
12685.370   +19.1810   +43.0974  
12938.966   +19.3575   +43.1961  
13197.631   +19.5516   +43.2968  
13461.467   +19.7393   +43.3790  
13730.577   +19.9288   +43.4582  
14005.067   +20.1373   +43.5484  
14285.045   +20.3231   +43.6250  
14570.619   +20.5236   +43.7251  
14861.902   +20.7212   +43.8380  
15159.010   +20.9249   +43.9312  
15462.056   +21.1182   +44.0001  
15771.160   +21.3088   +44.1051  
16086.443   +21.5302   +44.2020  
16408.031   +21.7464   +44.2752  
16736.045   +21.9321   +44.4074  
17070.619   +22.1508   +44.4749  
17411.881   +22.3705   +44.5595  
17759.965   +22.5675   +44.6898  
18115.006   +22.7938   +44.8134  
18477.146   +23.0066   +44.8695  
18846.525   +23.2381   +44.9908  
19223.289   +23.4493   +45.0850  
19607.586   +23.6675   +45.2001  
19999.564   +23.9118   +45.2914  
20000.000   +23.9102   +45.2846  
