****************************************************
* FILE:L16RNX_8_017g_242_27mV.zma
* INFO: Arb1
* Data: Impedance (ohms), Phase (degrees)
****************************************************
   10.000    +7.1929   +25.7824
   10.199    +7.2537   +26.1631
   10.403    +7.3063   +26.5740
   10.611    +7.3675   +26.9332
   10.823    +7.4232   +27.3520
   11.040    +7.4861   +27.7539
   11.261    +7.5490   +28.1644
   11.485    +7.6134   +28.5669
   11.715    +7.6868   +28.8915
   11.949    +7.7544   +29.2836
   12.188    +7.8270   +29.7181
   12.432    +7.9048   +30.0558
   12.681    +7.9826   +30.5274
   12.935    +8.0689   +30.8971
   13.192    +8.1533   +31.2347
   13.456    +8.2467   +31.6529
   13.726    +8.3362   +31.9948
   14.000    +8.4392   +32.4178
   14.279    +8.5424   +32.7990
   14.565    +8.6530   +33.1428
   14.856    +8.7696   +33.5483
   15.153    +8.8825   +33.9550
   15.456    +9.0048   +34.2671
   15.766    +9.1412   +34.6412
   16.080    +9.2780   +34.9886
   16.402    +9.4194   +35.3182
   16.729    +9.5733   +35.6841
   17.064    +9.7277   +35.9895
   17.405    +9.8947   +36.3279
   17.754   +10.0706   +36.6297
   18.108   +10.2547   +36.9010
   18.471   +10.4529   +37.1465
   18.840   +10.6553   +37.3846
   19.217   +10.8722   +37.6668
   19.601   +11.0961   +37.8530
   19.992   +11.3400   +38.0819
   20.392   +11.6004   +38.2604
   20.800   +11.8641   +38.3894
   21.216   +12.1568   +38.4387
   21.640   +12.4630   +38.5338
   22.072   +12.7943   +38.5718
   22.514   +13.1357   +38.5336
   22.964   +13.5053   +38.4649
   23.423   +13.8950   +38.3070
   23.891   +14.3144   +38.0851
   24.368   +14.7690   +37.8786
   24.855   +15.2426   +37.5137
   25.353   +15.7472   +37.1292
   25.859   +16.2848   +36.5980
   26.376   +16.8714   +35.9113
   26.903   +17.4913   +35.1188
   27.441   +18.1496   +34.2172
   27.990   +18.8443   +33.1956
   28.550   +19.5790   +31.9675
   29.120   +20.3664   +30.5269
   29.703   +21.1801   +28.8857
   30.297   +22.0280   +27.0493
   30.902   +22.8904   +24.9940
   31.520   +23.7449   +22.6624
   32.150   +24.6087   +20.0792
   32.793   +25.4003   +17.2223
   33.448   +26.1654   +13.9958
   34.117   +26.7942   +10.5099
   34.799   +27.3186    +6.8619
   35.495   +27.6229    +3.0309
   36.204   +27.7584    -0.8791
   36.928   +27.7123    -4.8606
   37.666   +27.4685    -8.8051
   38.419   +26.9976   -12.6030
   39.188   +26.3733   -16.2664
   39.971   +25.6316   -19.6250
   40.770   +24.7769   -22.7531
   41.585   +23.8672   -25.6533
   42.416   +22.9351   -28.2566
   43.265   +21.9615   -30.5134
   44.129   +21.0687   -32.5232
   45.012   +20.1626   -34.3393
   45.911   +19.2896   -35.8227
   46.829   +18.4626   -37.1184
   47.766   +17.6746   -38.1813
   48.720   +16.9349   -39.0235
   49.694   +16.2478   -39.8102
   50.688   +15.6047   -40.3622
   51.701   +14.9993   -40.8368
   52.734   +14.4440   -41.1396
   53.789   +13.9185   -41.3675
   54.864   +13.4274   -41.4829
   55.961   +12.9780   -41.5141
   57.079   +12.5412   -41.4475
   58.221   +12.1476   -41.2246
   59.385   +11.8441   -41.1387
   60.571   +11.4475   -40.9824
   61.782   +11.1092   -40.5876
   63.018   +10.8067   -40.0708
   64.277   +10.5791   -39.5252
   65.563   +10.3533   -39.3411
   66.873   +10.1023   -39.0531
   68.210    +9.8675   -38.6763
   69.573    +9.6357   -38.2396
   70.965    +9.4219   -37.7490
   72.383    +9.2253   -37.2049
   73.830    +9.0387   -36.6890
   75.307    +8.8577   -36.0930
   76.812    +8.6880   -35.5041
   78.348    +8.5382   -34.8489
   79.913    +8.3908   -34.1907
   81.511    +8.2549   -33.4836
   83.141    +8.1289   -32.7637
   84.803    +8.0252   -32.0047
   86.498    +7.9409   -31.4131
   88.228    +7.8457   -30.8403
   89.991    +7.7478   -30.3362
   91.790    +7.6489   -29.7128
   93.625    +7.5605   -29.1278
   95.497    +7.4704   -28.4863
   97.406    +7.3898   -27.8169
   99.354    +7.3202   -27.1446
  101.339    +7.2569   -26.5092
  103.365    +7.2011   -25.9712
  105.432    +7.1257   -25.4395
  107.539    +7.0595   -24.7738
  109.689    +7.0010   -24.1132
  111.882    +6.9552   -23.4781
  114.118    +6.9105   -22.9110
  116.400    +6.8614   -22.4063
  118.727    +6.8079   -21.8578
  121.101    +6.7581   -21.2652
  123.521    +6.7112   -20.6599
  125.990    +6.6682   -20.0619
  128.510    +6.6292   -19.4506
  131.078    +6.5932   -18.8298
  133.699    +6.5608   -18.2485
  136.372    +6.5283   -17.6606
  139.098    +6.4990   -17.0693
  141.879    +6.4696   -16.4771
  144.715    +6.4419   -15.9023
  147.608    +6.4184   -15.3270
  150.559    +6.3968   -14.7622
  153.568    +6.3750   -14.1726
  156.639    +6.3555   -13.5784
  159.771    +6.3397   -13.0015
  162.964    +6.3236   -12.3825
  166.222    +6.3125   -11.7340
  169.545    +6.3237   -10.9755
  172.935    +6.3854   -10.7199
  176.392    +6.3559   -10.8853
  179.918    +6.3016   -10.5486
  183.515    +6.2670    -9.9144
  187.184    +6.2590    -9.3063
  190.926    +6.2451    -8.8384
  194.742    +6.2296    -8.3083
  198.636    +6.2221    -7.7795
  202.606    +6.2158    -7.2658
  206.656    +6.2104    -6.7566
  210.788    +6.2077    -6.2663
  215.002    +6.2046    -5.7582
  219.300    +6.2012    -5.2729
  223.684    +6.2019    -4.7936
  228.156    +6.2046    -4.2872
  232.717    +6.2057    -3.8196
  237.369    +6.2071    -3.3566
  242.114    +6.2106    -2.8651
  246.955    +6.2152    -2.3644
  251.892    +6.2224    -1.8864
  256.927    +6.2294    -1.3880
  262.063    +6.2436    -0.8586
  267.303    +6.2656    -0.4506
  272.646    +6.2691    +0.0294
  278.097    +6.2858    +0.5539
  283.656    +6.3119    +1.0890
  289.327    +6.3471    +1.5926
  295.110    +6.3913    +2.0577
  301.011    +6.4476    +2.4040
  307.028    +6.5080    +2.5583
  313.166    +6.5587    +2.4951
  319.427    +6.5857    +2.2965
  325.813    +6.5870    +2.1563
  332.325    +6.5723    +2.1024
  338.969    +6.5498    +2.1773
  345.745    +6.5260    +2.3393
  352.657    +6.5028    +2.6383
  359.707    +6.4847    +2.9901
  366.898    +6.4744    +3.4164
  374.233    +6.4704    +3.8435
  381.714    +6.4726    +4.2523
  389.346    +6.4721    +4.7014
  397.129    +6.4802    +5.1748
  405.067    +6.4942    +5.6438
  413.166    +6.5126    +6.0936
  421.425    +6.5372    +6.5551
  429.850    +6.5682    +6.9668
  438.443    +6.6006    +7.2913
  447.208    +6.6252    +7.5633
  456.148    +6.6594    +7.9323
  465.268    +6.6953    +8.2136
  474.568    +6.7322    +8.4890
  484.056    +6.7699    +8.6751
  493.732    +6.8105    +8.8265
  503.603    +6.8449    +8.8724
  513.671    +6.8682    +8.8835
  523.939    +6.8793    +8.9014
  534.414    +6.8828    +9.0052
  545.098    +6.8867    +9.1667
  555.994    +6.8895    +9.3652
  567.109    +6.8976    +9.5908
  578.446    +6.9072    +9.8235
  590.011    +6.9182   +10.0657
  601.806    +6.9325   +10.3145
  613.836    +6.9505   +10.5302
  626.107    +6.9638   +10.7099
  638.624    +6.9757   +10.9216
  651.391    +6.9845   +11.1240
  664.413    +6.9919   +11.3627
  677.695    +7.0016   +11.5939
  691.243    +7.0095   +11.8389
  705.063    +7.0168   +12.1074
  719.157    +7.0248   +12.3958
  733.534    +7.0353   +12.7045
  748.198    +7.0487   +13.0103
  763.155    +7.0591   +13.3272
  778.412    +7.0741   +13.6606
  793.974    +7.0905   +13.9824
  809.846    +7.1113   +14.3166
  826.035    +7.1295   +14.6449
  842.549    +7.1520   +14.9724
  859.393    +7.1777   +15.2702
  876.572    +7.1969   +15.5622
  894.097    +7.2174   +15.8928
  911.971    +7.2397   +16.2173
  930.202    +7.2665   +16.5242
  948.798    +7.2915   +16.8476
  967.765    +7.3120   +17.0901
  987.112    +7.3407   +17.4467
 1006.846    +7.3685   +17.7737
 1026.974    +7.3932   +18.1174
 1047.504    +7.4224   +18.4675
 1068.444    +7.4543   +18.8407
 1089.804    +7.4983   +19.1576
 1111.591    +7.5399   +19.3010
 1133.813    +7.5615   +19.5249
 1156.479    +7.5796   +19.7727
 1179.598    +7.5778   +20.0943
 1203.180    +7.5942   +20.7165
 1227.232    +7.6485   +21.2111
 1251.767    +7.6992   +21.5827
 1276.791    +7.7473   +21.9206
 1302.315    +7.7939   +22.2539
 1328.350    +7.8443   +22.5734
 1354.905    +7.8908   +22.8769
 1381.991    +7.9441   +23.1927
 1409.619    +7.9922   +23.4554
 1437.799    +8.0417   +23.7365
 1466.542    +8.0919   +23.9736
 1495.860    +8.1364   +24.2494
 1525.765    +8.1811   +24.4429
 1556.266    +8.2214   +24.7187
 1587.378    +8.2625   +24.9634
 1619.111    +8.3020   +25.2575
 1651.479    +8.3433   +25.5675
 1684.494    +8.3869   +25.9363
 1718.169    +8.4301   +26.2641
 1752.518    +8.4817   +26.6291
 1787.552    +8.5298   +26.9655
 1823.287    +8.5875   +27.3209
 1859.737    +8.6479   +27.6830
 1896.915    +8.7122   +28.0401
 1934.837    +8.7724   +28.1920
 1973.517    +8.8468   +28.5897
 2012.970    +8.9103   +28.8652
 2053.211    +8.9761   +29.1379
 2094.257    +9.0393   +29.4178
 2136.124    +9.1052   +29.6635
 2178.827    +9.1703   +29.9214
 2222.385    +9.2347   +30.1815
 2266.813    +9.2962   +30.4404
 2312.129    +9.3608   +30.7146
 2358.351    +9.4234   +30.9958
 2405.497    +9.4872   +31.2893
 2453.586    +9.5547   +31.5737
 2502.636    +9.6203   +31.8889
 2552.666    +9.6894   +32.2083
 2603.697    +9.7660   +32.5451
 2655.748    +9.8407   +32.8618
 2708.840    +9.9207   +33.1829
 2762.992    +9.9996   +33.5098
 2818.228   +10.0841   +33.8159
 2874.567   +10.1717   +34.1461
 2932.033   +10.2574   +34.4513
 2990.648   +10.3527   +34.7469
 3050.435   +10.4479   +35.0435
 3111.417   +10.5421   +35.3431
 3173.617   +10.6406   +35.6290
 3237.062   +10.7415   +35.9059
 3301.774   +10.8513   +36.1875
 3367.780   +10.9472   +36.4591
 3435.106   +11.0547   +36.7398
 3503.778   +11.1697   +36.9948
 3573.823   +11.2847   +37.2671
 3645.268   +11.4055   +37.4838
 3718.141   +11.5111   +37.6837
 3792.471   +11.6236   +37.9481
 3868.287   +11.7443   +38.2174
 3945.618   +11.8704   +38.4695
 4024.496   +11.9988   +38.7137
 4104.950   +12.1345   +38.9550
 4187.013   +12.2761   +39.2087
 4270.716   +12.4273   +39.4325
 4356.093   +12.5904   +39.6772
 4443.176   +12.7771   +39.8474
 4532.000   +13.0043   +39.6598
 4622.601   +12.9972   +39.7606
 4715.012   +13.2462   +40.2310
 4809.270   +13.4154   +40.3027
 4905.413   +13.7403   +40.4146
 5003.478   +14.1101   +39.9325
 5103.503   +14.5130   +38.2508
 5205.528   +14.2850   +34.5427
 5309.593   +13.3620   +35.3971
 5415.737   +13.2715   +37.8992
 5524.004   +13.4547   +39.2972
 5634.436   +13.6720   +40.1177
 5747.074   +13.8758   +40.6443
 5861.965   +14.0660   +41.0174
 5979.152   +14.2577   +41.3413
 6098.683   +14.4434   +41.5706
 6220.603   +14.6244   +41.7343
 6344.960   +14.7940   +41.8829
 6471.803   +14.9543   +42.0550
 6601.182   +15.1133   +42.2432
 6733.146   +15.2795   +42.4106
 6867.750   +15.4599   +42.5706
 7005.045   +15.6110   +42.6520
 7145.084   +15.7656   +42.8655
 7287.922   +15.9457   +43.0437
 7433.616   +16.1136   +43.1954
 7582.223   +16.2909   +43.3506
 7733.800   +16.4783   +43.4921
 7888.408   +16.6466   +43.6116
 8046.106   +16.8236   +43.7407
 8206.957   +17.0008   +43.8789
 8371.024   +17.1788   +43.9986
 8538.370   +17.3735   +44.1330
 8709.063   +17.5675   +44.2550
 8883.167   +17.7447   +44.3688
 9060.752   +17.9362   +44.4833
 9241.887   +18.1309   +44.5857
 9426.643   +18.3130   +44.6947
 9615.092   +18.5111   +44.7969
 9807.309   +18.7161   +44.8975
10003.368   +18.9142   +45.0005
10203.348   +19.1251   +45.0994
10407.324   +19.3220   +45.2051
10615.379   +19.5114   +45.3031
10827.592   +19.7331   +45.3846
11044.048   +19.9403   +45.4733
11264.832   +20.1618   +45.5548
11490.028   +20.3711   +45.6624
11719.728   +20.5706   +45.7522
11954.019   +20.7871   +45.8414
12192.993   +21.0175   +45.9235
12436.745   +21.2311   +46.0080
12685.370   +21.4550   +46.0921
12938.966   +21.6622   +46.1919
13197.631   +21.9020   +46.2851
13461.467   +22.1261   +46.3616
13730.577   +22.3486   +46.4595
14005.067   +22.6000   +46.5606
14285.045   +22.8180   +46.6106
14570.619   +23.0807   +46.7275
14861.902   +23.3229   +46.7776
15159.010   +23.5523   +46.8932
15462.056   +23.7886   +46.9453
15771.160   +24.0295   +47.0179
16086.443   +24.2801   +47.1115
16408.031   +24.5434   +47.1829
16736.045   +24.7717   +47.3006
17070.619   +25.0300   +47.3972
17411.881   +25.3174   +47.4794
17759.965   +25.5446   +47.5856
18115.006   +25.8249   +47.6669
18477.146   +26.0694   +47.7684
18846.525   +26.3411   +47.8717
19223.289   +26.6325   +47.9713
19607.586   +26.8872   +48.0689
19999.564   +27.1904   +48.1484
20000.000   +27.1923   +48.1576
